"time","Fz","Cz","Pz","Oz"
0,0.411287534144001,0.308742215794128,0.697517548114539,-0.180414899350975
0.004,0.0792804357460282,0.474142440830291,0.454278235922362,0.109480748146791
0.008,0.590692197502917,0.390636786833333,0.858488974049334,0.000859746100881797
0.012,0.874405887417001,0.608071814850875,0.899380451282403,0.686693271036413
0.016,0.965608422444315,0.50426296140497,0.635548923493965,0.328751094202112
0.02,0.919219161467708,0.78489062648665,0.818781854513858,0.786686489533437
0.024,1.45148332765995,0.62556630064213,1.02120715983872,1.04741737824069
0.028,0.953889539204759,0.696599175452083,-0.021016497379618,0.515535453095612
0.032,1.51035416662913,0.633045545964861,0.411637599460687,1.2411971351771
0.036,0.751699013060063,1.22249404409812,0.653950934660318,0.344737750695193
0.04,0.979246148559519,1.23931859201464,0.0357964371747383,1.06695551973807
0.044,1.05411817049501,0.67768352899275,-0.260106472058887,1.4496468466093
0.048,-0.291324976769398,0.327318648032203,-0.198724068626859,1.13826312965988
0.052,-0.208969863609515,0.477243802102645,-0.865956555208542,1.19954084720927
0.056,-0.408120953602775,0.993514717800997,-0.693650255821673,0.691507668909797
0.06,-0.397000132871451,0.737727184789451,-1.40898758811231,0.860026069628794
0.064,-0.855789119200611,-0.591266906544369,-1.36186510052029,0.997925729329893
0.068,-1.70176367873745,-0.380023932354041,-1.41747282734425,0.147649471284544
0.072,-1.71442732930134,0.0004042870272008,-0.72893183606264,0.714883819659091
0.076,-0.601992724709214,-0.639164590273771,-0.587012329152416,-0.149839226609897
0.08,-1.0430480945187,-0.291289270077862,0.183871604919763,-0.0243010738400763
0.084,-1.37872045569602,-0.982366844427918,0.0377096871641604,0.761696960303198
0.088,-0.736122312656575,-0.777026011842762,0.75076926650365,-0.0218233891667172
0.092,-0.117351264349936,-0.928861237368097,1.19149788047146,-0.348196568072969
0.096,0.319868151214635,-0.0248904618759911,0.669057780604741,-0.165950156858224
0.1,-0.12914073948186,-0.674920746263397,1.06758823877854,-0.660927849358967
0.104,0.171509072334175,-1.2321454754343,0.746453066448022,-0.516107282034759
0.108,-0.0471952514567191,-0.935415731485085,1.1799188993787,-0.904945550824773
0.112,0.82257631237807,-0.496859712307987,0.506667799810654,-1.5888585901874
0.116,0.652329462713979,-1.00741596065481,0.319749198417613,-0.801274245886771
0.12,1.08769155326752,-0.790012870653828,0.454762561158341,-1.13573130916476
0.124,1.20947792959692,-0.386791100086336,0.102570201314086,-1.17137013256742
0.128,1.29281830731967,0.0458467071530153,-0.145483807936014,-0.992472149401427
0.132,0.722149139843856,0.716313567764111,-0.482822727798385,-0.56261635997493
0.136,0.92199977976518,0.442915360505612,-0.896106263015221,-0.826602719153094
0.14,0.0726826485704706,0.733261320596147,-0.94388770182165,-0.591791842420384
0.144,0.132786850170831,0.796957177791265,-0.504413802389906,-0.565532091269963
0.148,-0.12993904468865,0.703670043513375,-0.99205448120491,-0.616576441730525
0.152,-0.849595528548293,1.38592730419349,-1.28938824383605,-0.323838367562992
0.156,-0.357287770617001,0.670967087778821,-0.97367707306229,-0.432868579205718
0.16,-0.525985672232397,0.913757195164621,-0.812298135849047,-0.623483563110577
0.164,-0.878830432340389,0.820728782651377,-0.469737023416657,0.00392885841339208
0.168,-0.677378081756165,0.990234485047833,-0.277963461095528,-0.633099779571712
0.172,-1.20029869885166,1.18482033847721,-0.396381003907671,-0.0961527738436839
0.176,-1.40851104175406,0.700538704569249,0.847775686326615,0.326780520108854
0.18,-0.821211108528539,0.782836500856587,1.04234037827125,0.433525826959478
0.184,-1.08774587835802,0.403952173540247,0.890201508215941,0.481821841592518
0.188,-0.251316727412313,-0.212505458833571,0.782150277554444,1.01688632978649
0.192,-0.611187534885718,-0.199807620820685,0.699336046194041,0.495455113384595
0.196,-0.0519955221441936,-0.00155184758385318,0.9211872856764,0.109748384046731
0.2,0.0965775795611835,-1.05616498813959,0.655754324456287,1.1851920855938
0.204,0.0135382049007403,-0.640081919179764,0.447436683733174,1.00021746627409
0.208,0.954471930039307,-0.904563751279323,0.026581478560568,0.967374296534546
0.212,0.877416897643883,-0.679655377672559,-0.0872567609883679,0.873094132675362
0.216,0.871256119481896,-0.76541145314246,-0.41705416338849,0.452421937718797
0.22,1.03402174048259,-0.907710707275422,-0.603019531719621,0.619015715920516
0.224,1.20181337324485,-0.517538303664481,-0.776288822632856,0.982820132826831
0.228,1.00923711670241,-1.35148956420217,-0.497567886859439,0.743157947060191
0.232,0.00690002752013896,-0.513073164590812,-1.29377850722954,0.202018249215014
0.236,0.855978128834988,-1.12091556992671,-0.417686348635526,0.683074781041433
0.24,0.477614859470181,-0.305438796966142,-0.784809702925211,0.604038439207646
0.244,0.423693722144361,-0.270148892776819,-0.456609989796466,0.18388084717871
0.248,0.299880351773956,0.189816782233736,-0.125901127506738,0.0704108502433368
0.252,0.294587814623501,0.124005420725662,0.0157611504591053,0.347415316942594
0.256,-0.586312170527018,-0.173568369368792,-0.329026318428857,-0.105819151308701
0.26,-0.197022462679229,-0.120593281103112,0.590667345392983,-0.00216201426293711
0.264,-0.669758806850168,0.809348018841073,0.882598700281615,-0.517146365497654
0.268,-0.593275222856733,0.764275452704091,0.455949705166908,-0.183845007839066
0.272,-0.706068680241495,0.72253590608384,1.16111550705269,-0.760218253365891
0.276,-0.781763279568213,0.872061100877182,0.745895099056461,-0.555271362035947
0.28,-1.26399219786551,0.796602208297862,1.20483578458675,-1.00826066658874
0.284,-0.871383841485228,0.943259290072358,0.62585478101355,-1.28162258583355
0.288,-0.497491657328828,0.663599014592904,0.0363170931825851,-0.689980007489165
0.292,-0.76781068143342,0.262623812352614,0.0251895707581236,-0.311119831972415
0.296,-0.411538531537015,0.671633176083361,-0.243668677346828,-1.08444937884287
0.3,0.174298949304504,0.901368013131192,-0.31417104205738,-0.510399677736358
0.304,0.47914350851523,0.977574450883186,-0.848628699637336,-0.964914104103422
0.308,0.620883950663765,0.225052619736532,-1.55300324842699,-0.539291315350056
0.312,0.418814216705784,0.000929115030588654,-1.38918921956416,-1.01706656689833
0.316,0.514393655907659,0.113871625396686,-1.22255683681198,-0.525236414208593
0.32,1.40486861923663,-0.352053247720723,-0.716448337141157,-0.710852002170026
0.324,1.07540315968788,-0.676863869407279,-0.73250684049487,-0.750276518434508
0.328,1.00881931947656,-1.22383914640154,-0.575684229428162,-0.00320265744600623
0.332,0.868558091204292,-1.20970457913054,-0.353828964498458,0.432649709926719
0.336,0.41221457422763,-0.803184653213676,0.245818467680069,-0.136190374912158
0.34,0.77138432170459,-1.42018344106262,0.226323991368259,-0.0164729465929439
0.344,0.302982598960724,-0.685383833157406,0.600932703005038,0.0696192832991258
0.348,0.0705062216647314,-1.38119728540325,0.611848256266977,0.387732335526943
0.352,0.154670665007045,-0.973312340054967,0.570209821782042,0.846750066242911
0.356,-0.1215926195322,-0.817040037851288,1.27701680235567,0.967919844461721
0.36,-0.170150339512191,-0.688396026088845,0.509578411456306,0.977214193751763
0.364,-0.91336541969219,-0.479590433365978,0.759421861206062,1.14311736623867
0.368,-0.709722484248128,-0.165089583754194,0.33316744706525,0.824718339027537
0.372,-0.564954113811688,-0.188089320310243,-0.093264439685767,0.941798317154857
0.376,-1.33126339226264,-0.0243163515742635,0.00246725599719014,1.20390444245633
0.38,-1.20929429235851,0.296788105636239,-0.25618420132893,0.897814052256226
0.384,-1.18384952975815,0.307023184171752,-0.248291330505456,0.654503763713318
0.388,-1.12231130577941,1.06915402342469,-0.733028400375332,0.468996183015187
0.392,-0.457758908129368,0.10317740775128,-1.00006198486987,1.61084297586238
0.396,-0.0527285852700974,1.17828514045696,-0.219180375019876,0.19273545312997
0.4,0.360289612679547,0.876511636338173,-1.14614184484153,0.596580248130734
0.404,0.562115213315173,1.12030742626973,-1.11729421921119,1.03987416146686
0.408,0.180791080049757,1.29242959723507,-0.768464471556951,0.5721968723606
0.412,1.23909167643051,1.20919224062788,-0.377767293207557,0.119419159649878
0.416,0.644295902874668,0.684134668721242,0.129884732614301,0.185128848772654
0.42,0.982710660031974,1.23973409076334,0.373443405044457,0.410153639040125
0.424,0.871349963867615,0.140798580703237,0.493449435958195,-0.216063589568284
0.428,0.945582199142197,0.718748772665184,0.497282619262264,-0.585101834649262
0.432,0.96128496281647,0.119471103486467,1.25343937291757,-0.110826463362632
0.436,0.806261530174891,-0.499882702105688,1.26849579695454,-0.105313831664655
0.44,0.580257487032253,-0.685077388150287,0.764973372911381,-1.06587971089705
0.444,0.400546371067287,-0.247389890775303,1.08832495270738,-0.641899627022342
0.448,-0.0202973371896957,0.163437088936661,0.837675707292232,-0.88627301774698
0.452,-0.276598372770674,-0.583999048190912,0.773146342453002,-0.761139340246665
0.456,-0.866454276659122,-0.462331546512393,0.219911769306509,-0.838124259576938
0.46,-0.702485370354618,-0.65322624024799,-0.467653379524514,-1.00418065811465
0.464,-0.92430832013913,-1.16801631627814,-0.173625760267384,-0.845792809376103
0.468,-0.0942597523625799,-0.713101179096771,-0.884626826725085,-1.29748751216707
0.472,-1.3909221200856,-0.880800504561072,-0.699363870475106,-1.2915097378182
0.476,-0.95684986286069,-0.872349154661728,-0.46958810125098,-0.570063684973826
0.48,-1.39914403649004,-0.543993955208942,-1.42367513450952,-0.658736454945671
0.484,-1.28545864793306,-0.496073427395824,-0.465755702105946,-0.606754061549296
0.488,-0.647136390069587,-0.7552414001437,-0.380340129461197,-0.939931360332885
0.492,-0.780745414566928,-0.272806561056189,-0.725877982134223,-0.467890978807469
0.496,-0.249236671456267,-0.467360366728083,-0.372423414220822,-0.0925640438517956
0.5,-0.128477664427746,0.189245523027531,-0.205754305887751,-0.145896876225847
0.504,0.0645884052300036,0.0698984255290375,0.125931285900799,0.17461079301892
0.508,-0.125649679524017,0.527015260102756,0.741158363590601,0.412510755612322
0.512,0.317122720820694,0.677668662685661,0.516600730560984,0.395865175339478
0.516,0.898182857837397,0.639192777989333,0.877229976082778,0.695546881898485
0.52,1.12134269462221,0.983981710815909,0.954855715224333,0.611627771366879
0.524,0.850163522362229,1.1066358101447,0.942659937528407,0.690782583780451
0.528,0.982306115948294,0.917475947160645,0.911960670910358,0.793951836617123
0.532,1.24169394548001,1.35096222513132,1.14498413019015,1.12599517150553
0.536,1.20246996566865,1.38944254493461,0.278976059025247,1.22358773851802
0.54,0.258651121770728,0.706229675753143,-0.113130833875944,1.69867045440286
0.544,0.332928684609621,0.568356222853372,0.0626622459204136,0.701141341859854
0.548,0.485782753840212,0.820073441106884,-0.34543817069318,0.759394500912796
0.552,-0.266252107734196,0.229629530223379,-0.631913574901116,1.11832193723943
0.556,-0.383865398166377,0.186116468232118,-0.70499474737883,1.34882625517752
0.56,-0.613617441763599,0.366213043295387,-1.40586631135236,1.13850769517508
0.564,-1.03681694814772,-0.247369860822262,-0.674622572832674,0.525700181935009
0.568,-1.03823225393144,-0.851389485871819,-0.779065808951643,0.342925027612876
0.572,-0.991120714455159,-0.260262610474841,-0.468857487630171,0.923296262392418
0.576,-1.12218738314565,-1.10845342842897,-0.704729943981753,0.735805990544046
0.58,-0.617040709284693,-1.17689332001194,-0.801271902268703,0.189691511182591
0.584,-0.988625777998211,-1.78767103026032,-0.0951325417646154,0.48507639328236
0.588,-0.814497815708911,-0.709150442348356,0.0725888786674958,-0.177419107869643
0.592,-0.272694901136089,-0.920804482488969,1.27475903191591,-0.566313719248037
0.596,-0.565600411116127,-0.85492327073761,0.692299277804328,-0.474762911706549
0.6,-0.0122095425453659,-0.697618849328183,0.88635436228376,-0.563808926327762
0.604,-0.216773559539425,-0.882775211965996,1.31881460022516,-1.17052129916706
0.608,0.831904538872416,-1.08592415244611,1.14462574699145,-0.853016371894763
0.612,0.60245339551646,-0.438797601995346,1.03251589475951,-1.00787335428465
0.616,0.703974328100339,-0.0461063399050331,1.4178042301752,-0.795604490482915
0.62,0.579580817899289,-0.698756168503252,0.417958872286572,-1.141655780098
0.624,0.995698118295073,-0.232341088715482,0.646879466788212,-0.85462343732012
0.628,0.742202597343192,0.0625520694237839,-0.148155240555458,-0.832723998505211
0.632,0.744779353480888,-0.0422620798225656,-0.941329791812048,-1.04917890119094
0.636,1.15681581645117,0.733406384593705,-1.40568758974228,-0.928293352031093
0.64,0.535127491219836,0.504792535059554,-0.709921987115703,-0.12987333791416
0.644,0.046589837439478,1.19341124390867,-1.29023638512722,-0.28984204672942
0.648,0.174295298304516,0.931293576709126,-0.974094229104974,-0.180627362010751
0.652,-0.23415475825269,1.19569587886975,-0.36072831413925,-0.507741260927121
0.656,-0.191120488288476,1.468250464667,-0.616154221686746,-0.643307341495352
0.66,-0.158058673973175,1.06197467680785,-0.567882907946651,-0.0773528525682095
0.664,-1.06832099610864,1.24809508459664,-0.777082976147137,-0.0805473800822965
0.668,-0.768431963191936,0.893805278699587,-0.13983301795076,1.12564216605877
0.672,-0.956817833125143,0.249147912052138,0.218688275619217,-0.379858685580973
0.676,-0.729357053748908,0.553115024708354,0.852317681370554,0.283793171900726
0.68,-1.01998995797903,0.583565414497305,0.989365129787156,0.926868235383648
0.684,-0.593342204963829,0.321860164327958,0.969570661445488,-0.0216246223547454
0.688,-1.2080638643297,-0.0772965992068119,1.05336259302813,0.642414425070876
0.692,0.0250840022922916,-0.589580607549897,0.856553561400317,0.916559631483337
0.696,0.0107435063907114,-0.220456070380443,0.810635151737948,0.827950146661297
0.7,-0.0452327966657261,-0.862722060796839,0.66928748485132,0.671524975308421
0.704,-0.186012251876899,-1.11306015008584,0.455691138031244,0.950013878718895
0.708,0.674656284114306,-0.679048340671999,0.573418392972458,1.40147957124234
0.712,0.829505265073115,-1.31283373544981,-0.606559048782468,0.585962068683342
0.716,0.842421237575598,-0.91715210122481,-0.103952117259151,1.38297250637037
0.72,0.99649328415388,-0.997195072825193,-0.569059504732469,1.17904173612042
0.724,0.82279403732333,-1.36384454464094,-1.38867576994879,0.459589523647819
0.728,1.09292927051776,-0.539932500601433,-1.0792477775405,0.287285010955787
0.732,0.993223354381877,-0.964129931881299,-1.16607102115979,0.638052966459661
0.736,0.686735430773017,-0.287062466668443,-1.15008389015545,0.589513095256569
0.74,0.186914255824528,-0.624263777985354,-1.14591305119717,0.723986980838363
0.744,0.578349198216691,-0.469558710422284,-0.585346381530919,0.213005949396618
0.748,0.291592220246519,-0.109729522233767,-0.280833593701816,0.20143828372
0.752,-0.37622521140473,-0.0070553839423224,0.0531621862366847,0.3114471391749
0.756,-0.84650100128655,0.190061258282717,-0.181218319023924,0.126935994580505
0.76,-0.526297678116181,0.218454359071594,0.816997872457353,-0.120296456459265
0.764,-0.874039636167654,0.283186824016053,1.09408912863943,-0.406448082108614
0.768,-0.829043541456684,0.970274417742728,1.2141609857156,-0.513406237854335
0.772,-1.37048799037405,0.651980421712521,1.22735576125504,-0.376727242520187
0.776,-1.28577786174238,0.552444559860606,0.98522910218357,-0.49993417397617
0.78,-0.625324060191184,0.845672358679207,1.21101825227912,-0.923281534459763
0.784,-0.723195454087303,0.75018077967545,0.283457701552042,-0.849144814818643
0.788,-0.508600844912898,0.285154830191844,-0.095029472599005,-0.48269573570092
0.792,0.0628148597444713,0.770245511413349,0.0762212805490356,-0.558510940462221
0.796,-0.21004345858414,0.787665353706327,-0.188696383630967,-1.2798602426111
0.8,-0.600278771319455,0.676192959238181,-0.811740187813502,-0.516596013920573
0.804,0.348823046394929,0.532197960619502,-0.790585148741299,-0.919598122328823
0.808,0.833151212309356,-0.0759823529508652,-0.845997648631951,-1.28847019121322
0.812,1.30240887861848,-0.0725880405036962,-0.885386662920112,-0.332566177047897
0.816,0.431269446029855,-0.477527700603927,-0.702414690094667,-0.582589971024293
0.82,0.605799846607021,-0.558753997294801,-0.564311529231126,-0.19163987515769
0.824,0.786280310000235,-0.909346553130467,-1.37569821837418,0.237090975090585
0.828,0.666070516105532,-1.03758910999465,0.127024540189142,0.124251810935281
0.832,0.711103935523275,-0.641631550423031,0.0364390790319452,-0.156322376229717
0.836,0.714899852472843,-1.00683367788805,0.0286018767907038,0.0598847774356416
0.84,0.227418637070479,-1.05993960124229,0.14736635344832,-0.0474498428273981
0.844,0.979216202779627,-0.481053590236368,0.991828304557073,0.144861223019083
0.848,0.157665657029973,-0.994785773190406,0.992270228796501,0.672033906715712
0.852,-0.150565663715972,-1.07636030800359,1.31011293222221,0.557272723896599
0.856,-0.219438660203299,-0.592153241867462,0.972366759585902,0.951727850308407
0.86,-0.576560696457082,-0.830724456545612,0.831771423877082,1.09405079040325
0.864,-0.81013965386256,-0.113302295517447,1.40993988556466,1.02428015098772
0.868,-0.461790825400388,-0.457944631368384,-0.107174689620981,0.845787941248187
0.872,-1.04739631375632,-0.335071373356275,0.341545100474232,0.544232313668299
0.876,-1.38310738965594,-0.300193197142641,0.040117197341967,1.03367792522233
0.88,-0.835356149162134,0.347281994742177,-0.236515872822251,0.670942265527701
0.884,-0.949781787560745,0.877068954882981,-0.460249090676731,1.13678419727133
0.888,-0.841085933935568,0.501127434167932,-0.913517814089045,1.11414484645253
0.892,-0.802193034307866,0.832691673299334,-0.608635365322704,0.896371232307004
0.896,-0.120180116184848,0.970182411222243,-1.73620421468503,0.391216122359378
0.9,-0.0522054703281007,1.37771448838802,-1.19272639413152,0.361244065265818
0.904,0.40339020575926,1.19277429071986,-0.852082615903196,0.312128567713716
0.908,0.411444090909941,0.674037062434579,-0.558965427452965,0.365111333339562
0.912,0.486996078182158,0.749451256617353,-0.222699070845644,0.881973971960876
0.916,1.21939890672563,0.658452089354586,0.141557680513517,-0.25107053468843
0.92,0.869527401761734,0.812985104415455,-0.203865404046847,-0.77238756852696
0.924,1.28241232719083,0.626507195071504,0.527475811280402,-0.309071950385715
0.928,0.621812521696007,0.569961110949015,0.911501787336215,-0.666148879862394
0.932,0.764992223553369,0.0757490611081534,1.31314193409216,-1.19812631934871
0.936,0.689707824229836,-0.0375771955203822,0.959540990190239,-0.928304260280537
0.94,0.470495629853217,0.0970747845632272,1.46203209424775,-0.882587047446537
0.944,0.772736656282195,-0.350825636741746,0.797832796756504,-1.18818596982258
0.948,0.118503823174786,-0.699910165217887,0.687680528125698,-0.710379248635425
0.952,-0.0520654782332626,-0.37466255521587,0.50764409881783,-0.699339641209421
0.956,-0.650836065043847,-0.797518091400357,0.024308890253687,-1.09357514927871
0.96,-0.806550435245344,-1.17978745257248,0.0894481810685525,-1.4425025081128
0.964,-0.471092570209332,-0.458725164536182,-0.818111771942243,-0.799016781909131
0.968,-0.527282553087349,-1.34971976962459,-0.66770493702489,-1.19079134859248
0.972,-0.607628144085659,-1.52099682225363,-1.01968942111551,-1.11915901565929
0.976,-1.41221784328587,-1.61026867702708,-1.13575385516958,-0.741556387647373
0.98,-0.336068308204236,-0.648990134638007,-0.652593112314942,-0.977390918343906
0.984,-0.539266076562155,-0.880158812568738,-0.618663037872839,-0.655674271423672
0.988,-0.69256234517017,-0.649936756218441,-0.306880473525824,-0.668408241395539
0.992,-0.270671340462237,-0.304485575048494,-0.646407987059301,-0.179356469453416
0.996,-0.540105455910415,-0.33965519905164,-0.287321345312958,-0.404117360586105
1,-0.32884687246766,-0.482418052483408,-0.465474992305775,-0.253127979279137
1.004,0.26340502244613,-0.38522515829819,0.180587752569671,-0.138340944165727
1.008,0.122204917134377,0.28916369136791,1.0965133857808,0.300356477583999
1.012,0.741552805496613,0.619686607326149,0.661330113867501,0.801600456277485
1.016,1.23363969538341,0.0369757566547366,0.584427335819793,0.300605394405268
1.02,0.64089439940573,0.93148526978614,1.0105950982838,0.749977484362671
1.024,0.776494502164353,1.0610208496987,1.34557847199254,0.589453332254507
1.028,0.996256432563947,1.37510715316988,0.384135264931151,0.543629000485325
1.032,0.599548216518188,1.04870367821278,0.589865725897519,1.26166821188892
1.036,0.655528054809907,1.03311788515474,0.554724743608469,0.806499927070854
1.04,0.849611875793895,1.08620814048376,0.718592231901064,1.48426976760545
1.044,0.658988056875717,0.795824754120196,-0.359704797428367,0.79003707546805
1.048,0.240487233072438,0.642097563220611,-0.00375338025815897,1.16873074398526
1.052,-0.680799932484551,0.538418540956603,-0.832518527867388,1.25828487140487
1.056,-0.384323573732533,0.544195619021725,-1.19159653885347,1.49974287521355
1.06,-0.268353287990992,-0.0040539474940057,-1.3225876002255,0.521221700036071
1.064,-0.52655473155231,-0.225185491101307,-1.05994074813327,0.688933624293694
1.068,-0.962071994697305,-0.532500558544037,-0.9219655822921,0.827141680593983
1.072,-1.7922661932978,-0.74690704560305,-0.851121929143295,0.263875570133841
1.076,-0.979736736787937,-0.529651369889111,-0.209507682043637,0.451407974672681
1.08,-0.778931007050081,-0.306301575070239,-0.19182753745629,-0.00386211717660959
1.084,-0.830586851584488,-1.17294909709428,0.0184960355200084,-0.365131811245175
1.088,-0.63732334387592,-1.01505391689521,0.163876581414699,-0.846174526906163
1.092,-0.352284062241078,-1.30513395757995,0.219125518315999,-0.16655173807427
1.096,-0.367654807979913,-0.721185377961859,0.228541259105219,-0.562151995170365
1.1,0.392993467725469,-1.04627107570759,1.0150800354515,-0.072422023646685
1.104,0.389807907127041,-0.816482564707399,1.00752180523719,-1.03756334239624
1.108,0.108952592929336,-0.64984292441735,1.36802874537536,-0.948110870619731
1.112,1.09901974284435,-0.924214004076935,0.917924041669271,-0.640091538412625
1.116,1.20566560660496,-0.468539053084139,0.866856671628522,-1.0212931583941
1.12,1.19827870539972,-0.317192672293207,0.380420464997374,-0.835869275380715
1.124,0.499237907772594,0.152362350548493,-0.170170409359846,-0.593454326349736
1.128,0.811495347647045,-0.21974781893114,-0.137378568000046,-0.340566633127232
1.132,1.09548119765288,-0.0153455401523259,-0.401687068245417,-0.949965505471224
1.136,0.783629845049152,0.754934602946121,-0.982730936587193,-1.16666980619155
1.14,0.692188943390873,0.508117747543791,-0.913451847034441,-1.16971242829454
1.144,1.10600261734581,0.618250501724508,-0.390226930363052,-0.91821121145811
1.148,-0.120180863755584,0.949145229280117,-1.32546576319326,-0.775008872980862
1.152,-0.759293268043031,0.88114848366238,-0.452187846530349,-0.888473896581234
1.156,-0.286015970955552,1.55983549328545,-0.788429699833385,-0.2120357675035
1.16,-0.794064304665494,1.06014668745903,-0.0370604952291254,0.178478849560319
1.164,-0.636700926887227,0.97354522810988,-0.452625932860598,-0.233351302518721
1.168,-1.1485424696032,1.10991837199642,0.0805031166144359,-0.261855721522522
1.172,-0.318670606628147,0.684665945020968,0.484743716344549,-0.182459143007774
1.176,-1.0351385199015,0.561016256757509,0.613278893078417,0.575688406778054
1.18,-1.09425716810417,0.0462619324644923,1.0419495771848,0.49121046069467
1.184,-0.894206372948004,-0.512868370168924,0.915323188800424,0.0364738722631199
1.188,-0.425778090840769,-0.387292150462633,1.36195151218863,0.683182471744234
1.192,-0.45255152854087,-0.190037932010218,0.994116366058134,0.816437763881213
1.196,-0.736374908928243,-0.724364704724893,1.00929287574431,0.640707920732604
1.2,-0.00138623034794028,-0.381142926589852,0.232121171324842,0.584656505166475
1.204,0.476762537463467,-0.51998821205571,0.123426822598104,0.850790146123215
1.208,0.493450947963479,-0.792312592911923,0.351982480080815,0.789225064819478
1.212,0.905068748413016,-1.00348755537838,-0.120316153169124,0.788147310051114
1.216,0.80038613740235,-1.40016838387326,-0.58716633441439,0.267614831871605
1.22,0.933690315680766,-1.09070801103142,-0.803148063862849,0.86002718103116
1.224,1.14273756825963,-1.10125250479444,-0.698607158698065,1.11520277618685
1.228,1.28017034176141,-0.694872680795328,-1.06327700562916,1.08442185551525
1.232,0.530908403056407,-0.393699571112012,-0.954781572286219,1.24999710705999
1.236,0.760466985322107,-0.496743868601096,-1.36397019531453,0.583210192732199
1.24,0.566496597917477,-0.820240234660925,-0.152344296382187,0.0525234039425412
1.244,0.140448356565397,0.20425761004241,-0.20732539185797,0.374973431814975
1.248,-0.184974574717436,0.202744194884419,0.0994607637824679,0.405280312464494
1.252,-0.314552819755543,0.167418079613551,-0.421411667621185,0.490624643596322
1.256,-0.192082236680771,-0.364903796385852,0.430864763792612,0.0191052892574356
1.26,-0.712682049147572,0.195377988535763,0.561866932194223,0.0573485899535105
1.264,-1.00597958562739,0.626484041406371,0.457267862696484,-0.371872231124872
1.268,-0.855802156620191,1.0146802026062,1.19549723588617,-1.01094184387103
1.272,-1.35330152126149,0.539870164163777,1.3663728435143,-0.995925078921607
1.276,-0.68426459555727,1.92874132586346,0.75910988507122,-0.264500136704485
1.28,-1.09643514116077,0.231879273143024,0.701756189397166,-0.693600858511149
1.284,-0.787589281997818,0.919681240896431,1.05983294341095,-1.15883794661698
1.288,-0.669245206456201,0.865121742914437,-0.221990435471775,-1.2021757283138
1.292,-0.481825874767654,0.658516581207897,0.198136140188003,-1.27613661817813
1.296,0.29412472556801,0.641815904110332,-0.415150007001485,-0.942143956609059
1.3,-0.247598387132979,0.81050379956417,-0.622378504713806,-1.02606172463499
1.304,0.592331022833253,0.152087778257553,-0.984859287702522,-1.17637211038465
1.308,0.491225630367689,-0.400573368941603,-0.613981922187152,-0.452079545125506
1.312,0.433985364336673,0.0532604662864002,-1.33743975596572,-0.71473909498784
1.316,0.82369883079706,-0.175569002576119,-0.676598791101783,-0.380580787857339
1.32,1.17508802239889,-0.372054748396156,-0.422388720632447,-0.595772484100516
1.324,0.87037110810989,-0.346003924366844,-1.13955081423936,-0.292158309170353
1.328,0.75066258017065,-0.706600280684495,-0.729444924601965,0.110347012193024
1.332,0.950656284490385,-0.59778179005292,0.0771019292995144,0.152472880449973
1.336,1.06709229632943,-1.52829780662503,-0.0871827553373759,0.382746087724985
1.34,0.565747751890818,-1.32074139922023,0.274294708197804,-0.299299134589326
1.344,-0.0479834133832468,-0.8952811727281,0.586703194682501,0.444534981226173
1.348,-0.266669537748306,-1.08313766819727,0.790496155653293,0.467632271377114
1.352,-0.355851831087685,-0.631808793245629,1.19779539978171,0.451996348566499
1.356,-0.526256990297014,-1.11775520647512,0.809559696258373,0.586042478358105
1.36,-0.594213371804958,-0.467376286179629,0.931632176190424,1.347057663492
1.364,-0.569363821476911,-0.725824452258408,0.958761508524139,1.04440155275269
1.368,-1.03521216403774,-0.678554981289259,0.0415093682642261,0.921999652726101
1.372,-1.31645118572254,-0.253067145930841,0.0173810731547391,1.27531902416324
1.376,-0.815894929964722,0.0651781151303785,0.182611232534916,0.835640447783602
1.38,-0.868419425673279,-0.119614701292817,-0.481080474887401,1.02394235969338
1.384,-0.497123804677601,0.20791399340269,-1.38821640238226,1.37704922989863
1.388,-1.18929136377217,0.234075679209235,-1.08793866778097,0.782502800589794
1.392,-0.455557947433266,1.05928357406403,-0.713713866939525,0.561820103191915
1.396,0.15731868101793,1.08726754188718,-1.12789771697155,0.538162146259132
1.4,0.217252140205007,0.641298375163619,-1.07244756830766,0.272546390936649
1.404,-0.00107596056441336,1.16081511175684,-0.860070017995931,0.53537860793149
1.408,0.701512220132234,0.919459182213317,-0.392090387274405,0.419302166005805
1.412,0.422969044929519,0.624504261873378,-0.491970148840318,0.431724779122429
1.416,0.708308672133072,1.0086504583194,0.092543213345772,0.565658776931589
1.42,1.30731679988387,0.673628149221882,0.420635987580645,0.296239009960322
1.424,0.910983134891247,0.891745331648162,0.219516756646599,-0.648189473758024
1.428,1.23085109421832,0.401120778588722,0.735689710405189,0.185357075348545
1.432,0.817458739832269,0.629368430148462,0.753749642139577,-0.50461080045662
1.436,0.297604521351419,-0.0776025480024518,1.11869772835324,-0.782012598466168
1.44,0.3331405432078,-0.059468830302316,0.529804253889617,-0.213822535642744
1.444,0.0415685940975241,-0.209855283397844,1.3440422047652,-0.728870040850765
1.448,-0.0199539377708415,-0.419890683516569,1.10645539637765,-0.405840164957527
1.452,-0.226226596267168,-0.605429136240248,0.206723127371036,-0.984688835156469
1.456,-0.414131919883163,-0.805465947600275,-0.0259392093670105,-1.21545935158442
1.46,-0.660759420864918,-0.932086554289264,-0.39787946800814,-1.58781595129446
1.464,-0.202852630295748,-0.56212232331902,-0.455337773532587,-0.639208529011638
1.468,-1.32062655365165,-0.726850301975639,-0.816323256421619,-1.20075425898685
1.472,-1.10673454094102,-1.16965239562844,-0.823735122148732,-0.608775976551928
1.476,-0.893302269996222,-0.515397776090776,-1.53419700184295,-0.750320362151718
1.48,-0.462523836550533,-0.80088841350948,-0.950462714090778,-0.542816622487671
1.484,-0.817771356787933,-0.912491056366504,-0.929660141077411,-0.187276976180739
1.488,-0.312801893408524,-0.516328271259203,-1.26646947051466,-0.582710680335006
1.492,-0.975120334827834,-0.438529913063462,-0.484477022375777,-0.435501657432342
1.496,0.18521707044868,-0.16942810215058,-0.280555789615762,-0.219753090304386
1.5,-0.207168051499566,-0.292018246244487,-0.0691720064091818,0.318106131731454
1.504,0.165760561528701,-0.0462376020615538,0.293076694395859,0.00778987777037107
1.508,0.148928046131885,0.800249357544831,0.682753707933455,0.244388497289721
1.512,0.724707900857524,0.855680228286142,0.89030554723699,0.676013116377675
1.516,1.37992964102148,0.455191682567575,0.804845114283021,0.800892543882674
1.52,1.67770552287063,0.574300290871114,1.34308014022688,0.923587875802517
1.524,0.674978057792748,1.45132888229566,0.960672075048311,0.801003903987519
1.528,1.12806958384962,1.55939859284655,0.816786229672687,1.09896763511997
1.532,1.32138357408931,0.76614711388401,0.949397281127607,1.02012686334753
1.536,0.711816197590423,0.580940154130742,0.711987989494306,0.787423612122345
1.54,0.522332812980607,1.69187560251162,-0.0848676929263587,1.5393420726686
1.544,0.276691166320743,0.870455659174918,-0.472340660525656,0.437230317238898
1.548,0.304683050797737,0.722036835076815,-0.671265276419132,1.22529024727859
1.552,0.293895589680425,0.526464192120841,-1.05538273779731,1.02757751170284
1.556,-0.161838624312687,0.742401665703617,-1.41665031195705,0.864359938036692
1.56,-0.491728848003379,0.0678165629634149,-0.889104994177171,0.587093246241797
1.564,-0.861074220508964,0.362490843718899,-1.03714441880484,0.587853835691828
1.568,-0.755322446798632,-0.339148570857685,-0.722476246513179,1.08809544112718
1.572,-1.14714832610372,-0.308036094739545,-0.754749189426496,0.385275800892189
1.576,-1.08180367951944,-0.937740463112565,-0.402425741338095,0.157605925581811
1.58,-0.622102483361633,-0.719371201338025,-0.397507331357895,-0.138175409187202
1.584,-0.711723999048371,-0.522090778167377,-0.237788069490581,-0.173803652024413
1.588,-0.612242217720855,-1.0075435634471,0.578082590545642,-0.200310795047609
1.592,-0.558435970708372,-0.611390850206382,0.836266482592961,-0.72826022992371
1.596,0.0306199832806075,-0.175452394146629,0.296225595552214,-0.116770515591366
1.6,0.400473775612638,-0.668479251095877,1.21424491184318,-0.558437141058315
1.604,-0.0120916419977692,-0.944767965853394,0.467909612523708,-0.263143661219822
1.608,0.498399760501253,-0.725307722824158,0.944815591724029,-0.50443622905359
1.612,0.699267179886269,-0.738109580085126,0.712134223000573,-0.45797520121827
1.616,0.670821206993748,0.21648459358454,0.589274481364391,-1.34375986668687
1.62,0.651434919496353,-1.13632377290389,0.696995872250662,-0.80841215921071
1.624,0.997296894426291,-0.0259778464200284,-0.301238552658049,-1.10783583693018
1.628,1.17894081557258,0.183266930505918,-0.303915869338342,-1.00766704541554
1.632,1.34787973615899,0.408677421068309,0.262367545376327,-1.14522488025681
1.636,0.197767406292036,0.0578287461715973,-1.18100500914332,-0.850709824654071
1.64,0.377053410298754,0.749410569806005,-1.09280332293523,-0.816238479858305
1.644,0.274695487281107,0.872638395825108,-1.00277703239907,-1.39020170527551
1.648,-0.373613875635902,1.29282781018499,-0.926699978258139,-0.391323034922039
1.652,-0.350493266101983,1.13432345784088,-1.05383310430948,-0.478862258267321
1.656,-0.601330080439121,1.3345573274478,-0.800118720193118,-0.682932158898833
1.66,-0.804556162250345,0.695036578077549,-0.156509329866129,-0.579118237941803
1.664,-1.4271636225199,0.88775553287783,-0.253933624401927,-0.307435181340348
1.668,-0.840801487380047,0.888117247910804,0.175828310664674,-0.42484615848361
1.672,-1.17186413160514,0.784315144979854,0.502236337383656,0.24103980046855
1.676,-0.541879370278623,0.338250007632304,0.76916623938637,0.795346109663362
1.68,-0.71226973147063,0.811876128940329,0.992079431275744,0.539618150246192
1.684,-1.28038679504186,-0.00850704751754536,0.981771412548962,0.766076718051747
1.688,-0.655028479626942,-0.509423087751134,0.786687249792016,0.275347137527191
1.692,-0.659884969371669,-0.103523727772173,0.925509310159804,0.354579033724359
1.696,0.0177944634254902,-0.215008946806434,0.512540438199633,0.624911558076964
1.7,0.0159211246495887,-0.304547130993989,0.615803241274251,1.16737751021962
1.704,0.0815827994114458,-1.02139135667066,0.216573269769486,0.721335360801904
1.708,0.613272784953531,-0.932013190965321,-0.0103702360003272,1.16750060191638
1.712,0.730329553521413,-1.34152147645459,-0.602679222669783,0.924840174242766
1.716,0.794942650977144,-0.737032303066975,-0.631317270460931,1.07360883373336
1.72,1.55702370273794,-0.893717708696678,-1.09743364462947,0.593091019391967
1.724,0.839210962533093,-0.691252862903944,-1.04677687006441,0.54589822462457
1.728,0.841051158833477,-0.711359058137062,-0.838061431263843,0.706264831163141
1.732,0.441045975260766,-0.968552828477967,-0.905142129035544,0.565078030473528
1.736,0.758355225787242,-0.593158540307893,-0.600675017494724,-0.0329958569398836
1.74,0.854892143933685,-1.05427649992693,-0.538156667848052,0.529249879010633
1.744,-0.253291802594088,-0.146157704270305,-0.40351835709167,-0.360638060078472
1.748,0.0503136975423987,0.190308031192338,0.149268415020092,-0.0492435329380235
1.752,-0.479828361560298,-0.162359422880793,0.507740631746776,-0.0587879043500236
1.756,0.0644566268203969,-0.343765780032374,0.017299496513821,-0.434870676676014
1.76,-0.180416590628811,0.0249053996262059,0.952191426922708,-0.789276262456863
1.764,-0.670162388573591,0.31312049920362,1.10357144577176,-0.623270380903514
1.768,-0.476025628345948,1.15858360079739,1.25984247847228,-0.660817901160143
1.772,-1.24248260599229,0.89488600467016,0.723492795452843,-1.01473665274019
1.776,-0.712831210936706,0.594043263035354,1.64775646017732,-1.23776879932054
1.78,-1.12655996888512,1.16473646409768,-0.00776180951663796,-1.26320839729141
1.784,-0.748040668744326,0.335516620888682,0.54845325798851,-1.11706812280371
1.788,-0.774365910928161,0.868883198763693,0.308383936195832,-1.12624949171294
1.792,-0.565316599089637,1.19138373446959,-0.0700392933663682,-0.574075486255414
1.796,-0.0848553396659982,0.635011146255452,-0.0965816234482449,-1.37239028756258
1.8,-0.391146346093466,0.979416754934796,-0.55057481022282,-0.836711834486561
1.804,0.173415547652111,0.952972742425524,-1.03498340903467,-1.0190820044806
1.808,0.533055886217082,-0.126079807292653,-0.519980544245194,-0.788480824480867
1.812,0.56350686230444,-0.320556192051269,-1.08746301510955,-0.919384385620775
1.816,0.875725757752735,-0.449359699778974,-0.78217804533166,-0.367082080842337
1.82,0.855392280274952,-0.209506142924594,-1.044280949461,-0.992678467720087
1.824,1.4835299091933,-0.2958706686197,-0.965020825050597,-0.298470801405066
1.828,1.19654383117527,-0.339908877571386,-0.573125276585892,-0.191887330537995
1.832,1.79458666341599,-0.440754135587566,-0.417414141107465,0.266514695545756
1.836,0.531989961408028,-0.602357515571489,0.359641922316892,0.0330215805460618
1.84,0.832095026696451,-0.700346943674399,0.0161258897074933,0.397668803976769
1.844,0.997533795723796,-0.950908636181786,0.426762185295325,0.511263853228247
1.848,0.215627250110068,-1.24370969116031,0.902006930699256,0.331100804755648
1.852,-0.450255776116079,-1.13308946744782,0.472014249108741,0.621927132133186
1.856,-0.670021303225667,-0.694060149033059,0.83899501774884,0.714165020733244
1.86,-0.598409621767759,-0.179486204153145,0.813350248190749,1.18020908214427
1.864,-0.377775934519765,-0.013380682891916,1.14133658798617,0.9870074643957
1.868,-0.679706906472004,-0.922492933422344,0.426362194396762,1.05256230359063
1.872,-1.62379774901241,-0.400424993689298,0.067284570751883,1.6966917360456
1.876,-1.20813296108826,0.475984073079712,-0.274292145219701,1.12417890635651
1.88,-0.953773458883051,-0.0705430273409287,-0.23395824077687,1.09103157408947
1.884,-1.28176797167545,-0.0469574750932109,-0.723526655868502,1.1024953235357
1.888,-0.476188211980233,0.787873624303827,-0.993729554176876,1.3467038979369
1.892,-1.22015431665767,1.27414079235221,-1.04242382176393,1.09001347505261
1.896,-0.205702957952728,1.45053512340684,-0.680351264093736,0.804180823380788
1.9,-0.117366635738129,1.11090268899639,-0.480707891551474,0.404499351011747
1.904,0.101340661480619,1.20951103732594,-1.00927287440475,0.566695475744552
1.908,0.396659438366087,1.16416162486973,-0.601773773141399,0.363396213770366
1.912,0.77898554734103,0.953095709519389,-0.441898260687181,-0.375864344158309
1.916,0.96322589888371,-0.129230498330196,0.506974488472831,-0.43717921847481
1.92,0.883375402984364,0.998724216203722,0.425919085685574,-0.663648092889664
1.924,0.420541599326103,0.510323305617743,-0.00901338525763906,0.151402537020306
1.928,0.550518461232096,0.762550227765048,0.624018770863504,-0.228874213464987
1.932,0.463929720274303,0.0848599913952046,0.227416259109112,-1.25153096289405
1.936,0.999072276843375,-0.415046405322624,0.965721738984544,-0.52590239160601
1.94,0.514700757731099,0.248239562044842,1.1934765867276,-0.751363661332733
1.944,0.449027534910093,-0.266530375840589,0.613944340057923,-0.934404788739735
1.948,-0.342345022722426,0.544968077559929,0.317897932176476,-1.14843381831047
1.952,-0.286009635573196,-0.39133429343617,0.836315112866638,-1.35233931587794
1.956,-0.199388960732626,-0.487015029642998,-0.114365934901238,-0.737345206763935
1.96,-0.641283089318445,-0.67567957138556,0.14700193075494,-1.17110712999738
1.964,-0.80505403863658,-1.15264794597249,-0.350153496892525,-1.0169483280552
1.968,-0.926445494097926,-1.11041837145142,-0.401704930609561,-0.758280512280214
1.972,-0.619014308650796,-0.668738162707774,-0.556763156708812,-0.709683671570249
1.976,-1.18249579866818,-0.617795783504796,-0.629658581544346,-0.904311413226797
1.98,-0.748218578800747,-0.669436277165918,-0.627215972735942,-0.846729931091496
1.984,-0.574748043840749,-1.01627925554978,-0.845708489413815,-0.489433674556389
1.988,-1.041342476985,-0.0618824056035697,-0.734760125054985,-0.790599394953593
1.992,-0.445376019156014,-0.801425980541998,-0.853885733935385,-0.205200038012432
1.996,-0.252056393003982,-0.329674285097747,-0.66016431789407,-0.0981812203846587
